* Measurement data measured by REW V5.31.3
* Source: Microphone (Realtek(R) Audio), MICROPHONE (־בשא דנמלךמסע), L, volume: 0,250
* Format: 256k Log Swept Sine, 1 sweep at -12,0 dBFS with no timing reference
* Dated: 13.08.2024 12:35:36
* REW Settings:
*  C-weighting compensation: Off
*  Target level: 75.0 dB
* Note: 
* Measurement: L אגד 13
* Smoothing: None
* Frequency Step: 1/48 octave
* Start Frequency: 20.000 Hz
*
* Freq(Hz)	SPL(dB)	Phase(degrees)
20.000000	85.724	38.6719
20.299999	85.721	37.5145
20.600000	85.714	36.4021
20.900000	85.705	35.3344
21.200001	85.697	34.2970
21.400000	85.694	33.6085
21.799999	85.692	32.2195
22.000000	85.690	31.5141
22.400000	85.680	30.0890
22.700001	85.667	29.0308
23.000000	85.651	28.0055
23.299999	85.635	27.0203
23.600000	85.622	26.0671
24.000000	85.612	24.8208
24.299999	85.607	23.8849
24.700001	85.601	22.6323
25.000000	85.594	21.7055
25.400000	85.583	20.5160
25.799999	85.574	19.3936
26.200001	85.569	18.3165
26.500000	85.569	17.5148
26.900000	85.568	16.4376
27.200001	85.564	15.6309
27.600000	85.552	14.5833
28.000000	85.534	13.5951
28.500000	85.514	12.4345
29.000000	85.498	11.2908
29.500000	85.480	10.1204
30.000000	85.453	8.9479
30.400000	85.428	8.0366
30.700001	85.410	7.3680
31.100000	85.388	6.4752
31.500000	85.367	5.5630
32.000000	85.334	4.4077
32.500000	85.295	3.2961
33.000000	85.258	2.2724
33.500000	85.233	1.3047
34.000000	85.219	0.3250
34.500000	85.208	-0.6896
35.000000	85.193	-1.7084
35.500000	85.174	-2.7014
36.000000	85.153	-3.6717
36.500000	85.126	-4.6252
37.000000	85.093	-5.5411
37.500000	85.057	-6.3941
38.200001	85.014	-7.5095
38.700001	84.989	-8.3077
39.500000	84.950	-9.6472
40.000000	84.921	-10.5070
40.599998	84.885	-11.5420
41.200001	84.845	-12.5658
41.799999	84.802	-13.5571
42.500000	84.753	-14.6553
43.099998	84.713	-15.5461
43.700001	84.677	-16.3893
44.400002	84.643	-17.3389
45.000000	84.621	-18.1819
45.500000	84.598	-18.9252
46.200001	84.552	-19.9701
46.799999	84.505	-20.8019
47.500000	84.455	-21.7227
48.200001	84.410	-22.6704
48.700001	84.374	-23.3511
49.400002	84.327	-24.2551
50.000000	84.296	-25.0206
50.799999	84.255	-26.1221
51.500000	84.204	-27.0767
52.200001	84.150	-27.9024
53.000000	84.103	-28.7601
53.799999	84.065	-29.6627
54.500000	84.027	-30.4941
55.200001	83.979	-31.3256
56.000000	83.918	-32.2231
57.000000	83.853	-33.3210
58.000000	83.785	-34.4832
59.000000	83.716	-35.5544
60.000000	83.659	-36.6135
60.799999	83.606	-37.4351
61.500000	83.565	-38.0970
62.200001	83.529	-38.7935
63.000000	83.477	-39.6283
64.000000	83.406	-40.5479
65.000000	83.354	-41.4633
66.000000	83.297	-42.5117
67.000000	83.220	-43.5015
68.000000	83.156	-44.3234
69.000000	83.113	-45.2531
70.000000	83.044	-46.2223
71.000000	82.981	-47.0220
72.000000	82.921	-47.9271
73.000000	82.843	-48.7313
74.000000	82.789	-49.4847
75.000000	82.728	-50.3733
76.199997	82.646	-51.2573
77.500000	82.596	-52.3162
78.800003	82.492	-53.4139
80.000000	82.439	-54.1467
81.199997	82.363	-55.2694
82.500000	82.274	-55.9919
83.800003	82.216	-57.0817
85.000000	82.131	-57.8781
86.199997	82.070	-58.7402
87.500000	81.994	-59.6392
88.500000	81.932	-60.3671
90.000000	81.846	-61.2702
91.199997	81.787	-62.0753
92.500000	81.718	-62.9349
93.800003	81.637	-63.6956
95.000000	81.581	-64.3866
96.199997	81.518	-65.1451
97.500000	81.447	-65.9236
98.800003	81.379	-66.7100
100.000000	81.313	-67.4168
101.500000	81.230	-68.2264
103.000000	81.163	-68.9506
104.400002	81.108	-69.7646
106.000000	81.018	-70.6704
107.500000	80.942	-71.4735
109.000000	80.874	-72.2670
110.599998	80.793	-73.0309
112.000000	80.736	-73.8226
113.800003	80.658	-74.6716
115.000000	80.585	-75.2972
117.199997	80.487	-76.3252
118.000000	80.457	-76.6442
120.599998	80.351	-77.8030
122.000000	80.300	-78.4846
124.099998	80.192	-79.4814
125.000000	80.157	-79.8170
126.500000	80.087	-80.4783
128.000000	80.037	-81.1353
131.500000	79.910	-82.5624
132.000000	79.897	-82.7489
134.000000	79.801	-83.5664
136.000000	79.727	-84.3569
138.000000	79.657	-85.1149
140.000000	79.565	-85.8557
143.000000	79.486	-86.9995
145.000000	79.391	-87.6653
147.500000	79.326	-88.4454
150.000000	79.230	-89.3361
152.500000	79.156	-90.1396
155.000000	79.071	-90.9837
157.500000	79.011	-91.8127
160.000000	78.957	-92.4990
162.500000	78.879	-93.2786
165.000000	78.819	-93.9272
167.500000	78.768	-94.6021
170.000000	78.727	-95.3656
172.500000	78.663	-95.8639
175.000000	78.586	-96.5570
177.500000	78.462	-97.2115
180.000000	78.328	-97.7639
182.500000	78.203	-98.2778
185.000000	78.066	-98.7802
187.500000	77.982	-99.3927
190.000000	77.908	-99.9243
192.500000	77.892	-100.3875
195.000000	77.855	-100.9087
197.500000	77.839	-101.3134
200.000000	77.828	-101.7294
203.000000	77.794	-102.2737
206.000000	77.749	-102.7346
209.000000	77.718	-103.1348
212.000000	77.675	-103.4697
214.000000	77.650	-103.8079
218.000000	77.626	-104.3323
220.000000	77.634	-104.5736
224.000000	77.642	-105.1445
227.000000	77.658	-105.7064
230.000000	77.694	-106.0815
233.000000	77.757	-106.6035
236.000000	77.815	-107.3310
240.000000	77.898	-108.2795
243.000000	77.944	-109.2135
247.000000	78.004	-110.5665
250.000000	78.030	-111.6107
254.000000	78.051	-113.0979
258.000000	78.047	-114.5815
262.000000	78.008	-116.1787
265.000000	77.971	-117.2744
269.000000	77.893	-118.6066
272.000000	77.840	-119.5299
276.000000	77.729	-120.6942
280.000000	77.632	-121.7164
285.000000	77.511	-122.8458
290.000000	77.407	-123.8582
295.000000	77.286	-124.7455
300.000000	77.192	-125.7345
304.000000	77.104	-126.1030
307.000000	77.049	-126.5817
311.000000	76.972	-127.2549
315.000000	76.894	-127.6431
320.000000	76.813	-128.1835
325.000000	76.738	-128.6345
330.000000	76.656	-129.3467
335.000000	76.594	-129.8184
340.000000	76.521	-130.3376
345.000000	76.469	-130.7032
350.000000	76.422	-131.2078
355.000000	76.361	-131.4551
360.000000	76.338	-131.8983
365.000000	76.286	-132.2444
370.000000	76.250	-132.7519
375.000000	76.200	-133.1978
382.000000	76.180	-133.6536
387.000000	76.118	-133.9463
395.000000	76.073	-134.4547
400.000000	76.043	-134.8612
406.000000	76.033	-135.2073
412.000000	75.997	-135.5259
418.000000	75.974	-135.9221
425.000000	75.953	-136.2854
431.000000	75.930	-136.6110
437.000000	75.885	-136.8505
444.000000	75.851	-137.2933
450.000000	75.844	-137.4702
455.000000	75.841	-137.7825
462.000000	75.814	-138.1259
468.000000	75.790	-138.5292
475.000000	75.763	-138.8629
482.000000	75.782	-139.0614
487.000000	75.765	-139.1628
494.000000	75.732	-139.5051
500.000000	75.731	-139.7457
508.000000	75.731	-139.9698
515.000000	75.703	-140.2863
522.000000	75.722	-140.3857
530.000000	75.722	-140.7083
538.000000	75.769	-140.9951
545.000000	75.764	-140.9906
552.000000	75.788	-141.4509
560.000000	75.792	-141.6564
570.000000	75.835	-142.0576
580.000000	75.877	-142.4919
590.000000	75.952	-142.8613
600.000000	76.007	-143.4182
608.000000	76.084	-143.8359
615.000000	76.119	-144.5752
622.000000	76.180	-145.1930
630.000000	76.229	-146.0875
640.000000	76.295	-147.2690
650.000000	76.297	-148.8010
660.000000	76.266	-150.6657
670.000000	76.161	-152.1691
680.000000	75.954	-153.7966
690.000000	75.719	-154.8691
700.000000	75.455	-155.3335
710.000000	75.167	-155.1199
720.000000	74.983	-154.7247
730.000000	74.808	-153.9077
740.000000	74.700	-153.3079
750.000000	74.659	-152.3294
762.000000	74.601	-151.3237
775.000000	74.553	-150.5277
788.000000	74.587	-149.9690
800.000000	74.610	-149.1337
812.000000	74.674	-148.5953
825.000000	74.707	-148.1843
838.000000	74.751	-147.8347
850.000000	74.858	-147.5292
862.000000	74.921	-147.3580
875.000000	74.996	-146.8646
885.000000	75.045	-146.6072
900.000000	75.113	-146.4846
912.000000	75.195	-146.2988
925.000000	75.259	-146.2190
938.000000	75.336	-146.1398
950.000000	75.428	-145.6254
962.000000	75.495	-145.5352
975.000000	75.585	-145.3156
988.000000	75.682	-144.9580
1000.000000	75.723	-144.6801
1015.000000	75.849	-144.5658
1030.000000	75.957	-144.3024
1044.000000	76.104	-144.1693
1060.000000	76.175	-144.0594
1075.000000	76.276	-143.7004
1090.000000	76.370	-143.5882
1106.000000	76.455	-143.2455
1120.000000	76.523	-142.7555
1138.000000	76.636	-142.5786
1150.000000	76.684	-142.1262
1172.000000	76.826	-141.5767
1180.000000	76.915	-141.5143
1206.000000	77.086	-140.8842
1220.000000	77.190	-140.4718
1241.000000	77.266	-140.1038
1250.000000	77.331	-139.8900
1265.000000	77.428	-139.7844
1280.000000	77.491	-139.3901
1315.000000	77.705	-138.8047
1320.000000	77.702	-138.8580
1340.000000	77.788	-138.4296
1360.000000	77.884	-138.1642
1380.000000	77.976	-137.8436
1400.000000	78.044	-137.4757
1430.000000	78.198	-137.1121
1450.000000	78.300	-136.4449
1475.000000	78.390	-136.3640
1500.000000	78.514	-135.9121
1525.000000	78.625	-135.7612
1550.000000	78.749	-135.2420
1575.000000	78.849	-135.2962
1600.000000	78.951	-135.0504
1625.000000	79.077	-134.8156
1650.000000	79.183	-134.6742
1675.000000	79.273	-134.4314
1700.000000	79.365	-134.2250
1725.000000	79.454	-134.0103
1750.000000	79.598	-133.6107
1775.000000	79.706	-133.2819
1800.000000	79.801	-133.1975
1825.000000	79.933	-132.8304
1850.000000	80.039	-132.6982
1875.000000	80.158	-132.4862
1900.000000	80.317	-132.3397
1925.000000	80.448	-132.4377
1950.000000	80.611	-132.3374
1975.000000	80.742	-132.3003
2000.000000	80.918	-132.4491
2030.000000	81.086	-132.6595
2060.000000	81.239	-133.0824
2090.000000	81.395	-133.5367
2120.000000	81.564	-133.9745
2140.000000	81.644	-134.3206
2180.000000	81.835	-135.0576
2200.000000	81.919	-135.3928
2240.000000	82.076	-136.3929
2270.000000	82.193	-137.1510
2300.000000	82.250	-137.9122
2330.000000	82.351	-138.7168
2360.000000	82.402	-139.4481
2400.000000	82.475	-140.4125
2430.000000	82.531	-141.0710
2470.000000	82.539	-142.0806
2500.000000	82.564	-142.7562
2540.000000	82.557	-143.4834
2580.000000	82.566	-144.2402
2620.000000	82.549	-144.9993
2650.000000	82.520	-145.3889
2690.000000	82.489	-145.9689
2720.000000	82.425	-146.1767
2760.000000	82.387	-146.3420
2800.000000	82.350	-146.5194
2850.000000	82.308	-146.3729
2900.000000	82.316	-145.8939
2950.000000	82.307	-145.8741
3000.000000	82.395	-145.7584
3040.000000	82.432	-145.6031
3070.000000	82.469	-145.6917
3110.000000	82.505	-145.7728
3150.000000	82.589	-145.8640
3200.000000	82.623	-146.3289
3250.000000	82.659	-146.4949
3300.000000	82.684	-146.8518
3350.000000	82.679	-146.8923
3400.000000	82.699	-147.0049
3450.000000	82.737	-147.1882
3500.000000	82.755	-147.2543
3550.000000	82.798	-147.4852
3600.000000	82.882	-147.8638
3650.000000	82.964	-148.4071
3700.000000	83.046	-149.0551
3750.000000	83.173	-149.8414
3820.000000	83.251	-151.3297
3870.000000	83.258	-152.7133
3950.000000	83.209	-154.6720
4000.000000	83.124	-155.9399
4060.000000	82.994	-157.3894
4120.000000	82.853	-158.9810
4180.000000	82.698	-160.5270
4250.000000	82.474	-162.3927
4310.000000	82.325	-164.0269
4370.000000	82.124	-165.5706
4440.000000	81.872	-167.4484
4500.000000	81.573	-168.7716
4550.000000	81.316	-169.8939
4620.000000	80.881	-170.6909
4680.000000	80.489	-170.9152
4750.000000	80.028	-170.9089
4820.000000	79.567	-170.0591
4870.000000	79.276	-169.4357
4940.000000	78.964	-168.1533
5000.000000	78.717	-166.6391
5080.000000	78.435	-164.7425
5150.000000	78.264	-163.1921
5220.000000	78.130	-161.6832
5300.000000	78.020	-159.9644
5380.000000	77.928	-158.3418
5450.000000	77.888	-156.7940
5520.000000	77.893	-155.5822
5600.000000	77.873	-154.3250
5700.000000	77.902	-152.5313
5800.000000	77.925	-151.2911
5900.000000	78.021	-151.5548
6000.000000	76.926	-152.8911
6080.000000	76.849	-143.2867
6150.000000	77.313	-140.6190
6220.000000	77.582	-139.4028
6300.000000	77.815	-137.9689
6400.000000	78.059	-136.6782
6500.000000	78.349	-135.8325
6600.000000	78.666	-135.0082
6700.000000	79.012	-134.3452
6800.000000	79.377	-134.2010
6900.000000	79.773	-134.6102
7000.000000	80.189	-135.3055
7100.000000	80.639	-136.8702
7200.000000	81.078	-139.1163
7300.000000	81.466	-141.9351
7400.000000	81.893	-145.6217
7500.000000	82.203	-149.8406
7620.000000	82.706	-155.1409
7750.000000	83.075	-161.2559
7880.000000	83.282	-167.0704
8000.000000	83.354	-171.9017
8120.000000	82.982	-176.1076
8250.000000	82.531	179.7948
8380.000000	82.006	176.4923
8500.000000	81.535	173.7222
8620.000000	81.192	171.2028
8750.000000	80.854	168.4868
8850.000000	80.668	166.4905
9000.000000	80.400	162.8622
9120.000000	80.259	159.5138
9250.000000	80.019	155.2291
9380.000000	79.705	150.2037
9500.000000	79.316	145.4731
9620.000000	78.751	140.6351
9750.000000	77.953	136.0349
9880.000000	77.100	132.5010
10000.000000	76.188	130.3958
10150.000000	75.119	129.3397
10300.000000	74.023	130.0725
10440.000000	73.134	131.1816
10600.000000	72.128	133.3185
10750.000000	71.483	137.0062
10900.000000	70.864	141.4147
11060.000000	70.519	145.2656
11200.000000	70.324	149.5900
11380.000000	70.102	153.3409
11500.000000	70.128	156.5129
11720.000000	69.975	161.3860
11800.000000	69.996	163.8514
12060.000000	70.544	170.6331
12200.000000	70.842	173.3762
12410.000000	71.781	176.1129
12500.000000	72.109	176.7056
12650.000000	72.688	177.1498
12800.000000	73.355	175.9460
13150.000000	74.487	170.7185
13200.000000	74.635	170.2309
13400.000000	74.757	167.0169
13600.000000	74.748	166.1808
13800.000000	74.133	165.7119
14000.000000	73.862	166.6617
14300.000000	73.872	166.9229
14500.000000	74.132	165.7968
14750.000000	75.140	161.5524
15000.000000	75.899	153.3110
15250.000000	76.466	141.3561
15500.000000	75.994	129.7021
15750.000000	72.070	118.5782
16000.000000	67.435	115.9769
16250.000000	61.884	114.6697
16500.000000	56.554	122.4324
16750.000000	55.030	131.6483
17000.000000	53.770	142.2035
17250.000000	54.097	150.1850
17500.000000	54.938	161.1270
17750.000000	56.344	177.7302
18000.000000	57.136	-173.5228
18250.000000	59.797	-171.9523
18500.000000	61.200	-178.9226
18750.000000	62.267	161.1940
19000.000000	61.145	149.2113
19250.000000	58.655	143.0144
19500.000000	56.589	143.3867
19750.000000	54.972	155.0986
20000.000000	56.572	154.6024
